 Incident particle is a   Muon with M =   105.65839 MeV
 Index =   29:  copper (Cu)
     Absorber with Z =  29,  A = 63.546(3), density = 8.960          
 Sternheimer coef:  a     k=m_s   x_0    x_1    I[eV]   Cbar  delta0 
                 0.1434  2.9044 -0.0254  3.2792  322.0  4.4190 0.08
 (Restricted energy loss for Tcut = 0.05 MeV
 Table written with (1X, 1P9E10.3,0PF8.4,f8.5,1pE10.3)          post-Born included in pair prod
 *** Results below 10 MeV are not dependable ***
      T         p     Ionization  brems     pair     photonuc  Radloss    dE/dx   CSDA Range  delta   beta   dE/dx_R
    [MeV]    [MeV/c]  -----------------------[MeV cm^2/g]------------------------  [g/cm^2]                [MeV cm^2/g]
  1.000E+00 1.457E+01 2.264E+00 0.000E+00 0.000E+00 4.335E-05 4.335E-05 4.528E+00 3.251E-03  0.0017 0.13661 2.949E+01
  1.200E+00 1.597E+01 2.583E+01 0.000E+00 0.000E+00 4.343E-05 4.343E-05 2.583E+01 1.052E-02  0.0021 0.14944 2.583E+01
  1.400E+00 1.726E+01 2.307E+01 0.000E+00 0.000E+00 4.351E-05 4.351E-05 2.307E+01 1.873E-02  0.0024 0.16119 2.307E+01
  1.700E+00 1.903E+01 1.998E+01 0.000E+00 0.000E+00 4.363E-05 4.363E-05 1.998E+01 3.274E-02  0.0029 0.17725 1.998E+01
  2.000E+00 2.066E+01 1.770E+01 0.000E+00 0.000E+00 4.375E-05 4.375E-05 1.770E+01 4.874E-02  0.0034 0.19186 1.770E+01
  2.500E+00 2.312E+01 1.496E+01 0.000E+00 0.000E+00 4.396E-05 4.396E-05 1.496E+01 7.959E-02  0.0043 0.21376 1.496E+01
  3.000E+00 2.536E+01 1.304E+01 0.000E+00 0.000E+00 4.416E-05 4.416E-05 1.304E+01 1.155E-01  0.0052 0.23336 1.285E+01
  3.500E+00 2.742E+01 1.160E+01 0.000E+00 0.000E+00 4.436E-05 4.436E-05 1.160E+01 1.562E-01  0.0061 0.25120 1.127E+01
  4.000E+00 2.935E+01 1.048E+01 0.000E+00 0.000E+00 4.457E-05 4.457E-05 1.048E+01 2.017E-01  0.0069 0.26763 1.007E+01
  4.500E+00 3.116E+01 9.585E+00 0.000E+00 0.000E+00 4.477E-05 4.477E-05 9.585E+00 2.516E-01  0.0078 0.28290 9.120E+00
  5.000E+00 3.289E+01 8.849E+00 0.000E+00 0.000E+00 4.497E-05 4.497E-05 8.850E+00 3.060E-01  0.0087 0.29720 8.350E+00
  5.500E+00 3.453E+01 8.235E+00 0.000E+00 0.000E+00 4.517E-05 4.517E-05 8.235E+00 3.646E-01  0.0096 0.31066 7.713E+00
  6.000E+00 3.611E+01 7.712E+00 0.000E+00 0.000E+00 4.538E-05 4.538E-05 7.712E+00 4.274E-01  0.0105 0.32339 7.176E+00
  7.000E+00 3.909E+01 6.870E+00 0.000E+00 0.000E+00 4.578E-05 4.578E-05 6.871E+00 5.650E-01  0.0123 0.34700 6.322E+00
  8.000E+00 4.189E+01 6.221E+00 0.000E+00 0.000E+00 4.619E-05 4.619E-05 6.221E+00 7.182E-01  0.0141 0.36854 5.673E+00
  9.000E+00 4.453E+01 5.704E+00 0.000E+00 0.000E+00 4.660E-05 4.660E-05 5.704E+00 8.863E-01  0.0160 0.38836 5.161E+00
  1.000E+01 4.704E+01 5.283E+00 0.000E+00 0.000E+00 4.700E-05 4.700E-05 5.283E+00 1.069E+00  0.0178 0.40675 4.747E+00
  1.200E+01 5.177E+01 4.635E+00 0.000E+00 0.000E+00 4.782E-05 4.782E-05 4.635E+00 1.474E+00  0.0216 0.43998 4.119E+00
  1.400E+01 5.616E+01 4.160E+00 0.000E+00 0.000E+00 4.863E-05 4.863E-05 4.160E+00 1.930E+00  0.0254 0.46937 3.664E+00
  1.700E+01 6.230E+01 3.645E+00 0.000E+00 0.000E+00 4.985E-05 4.985E-05 3.645E+00 2.703E+00  0.0313 0.50792 3.176E+00
  2.000E+01 6.802E+01 3.277E+00 0.000E+00 0.000E+00 5.107E-05 5.107E-05 3.277E+00 3.573E+00  0.0373 0.54129 2.830E+00
  2.500E+01 7.686E+01 2.851E+00 0.000E+00 0.000E+00 5.310E-05 5.310E-05 2.851E+00 5.216E+00  0.0476 0.58827 2.434E+00
  3.000E+01 8.509E+01 2.562E+00 0.000E+00 0.000E+00 5.513E-05 5.513E-05 2.562E+00 7.071E+00  0.0583 0.62720 2.169E+00
  3.500E+01 9.285E+01 2.354E+00 0.000E+00 0.000E+00 5.716E-05 5.716E-05 2.354E+00 9.111E+00  0.0694 0.66011 1.978E+00
  4.000E+01 1.003E+02 2.198E+00 0.000E+00 0.000E+00 5.920E-05 5.920E-05 2.198E+00 1.131E+01  0.0813 0.68834 1.835E+00
  4.500E+01 1.074E+02 2.075E+00 0.000E+00 0.000E+00 6.123E-05 6.123E-05 2.075E+00 1.366E+01  0.0989 0.71286 1.723E+00
  5.000E+01 1.143E+02 1.978E+00 0.000E+00 0.000E+00 6.326E-05 6.326E-05 1.978E+00 1.612E+01  0.1166 0.73434 1.634E+00
  5.500E+01 1.210E+02 1.899E+00 0.000E+00 0.000E+00 6.529E-05 6.529E-05 1.899E+00 1.871E+01  0.1344 0.75332 1.562E+00
  6.000E+01 1.276E+02 1.833E+00 4.191E-08 0.000E+00 6.732E-05 6.737E-05 1.833E+00 2.139E+01  0.1520 0.77019 1.501E+00
  7.000E+01 1.403E+02 1.732E+00 3.751E-06 0.000E+00 7.139E-05 7.514E-05 1.732E+00 2.701E+01  0.1868 0.79887 1.408E+00
  8.000E+01 1.527E+02 1.659E+00 7.666E-06 0.000E+00 7.545E-05 8.312E-05 1.659E+00 3.291E+01  0.2208 0.82227 1.339E+00
  9.000E+01 1.647E+02 1.603E+00 1.177E-05 0.000E+00 7.952E-05 9.129E-05 1.603E+00 3.905E+01  0.2540 0.84166 1.287E+00
  1.000E+02 1.764E+02 1.561E+00 1.607E-05 0.000E+00 8.358E-05 9.965E-05 1.561E+00 4.537E+01  0.2862 0.85794 1.246E+00
  1.200E+02 1.994E+02 1.502E+00 2.517E-05 0.000E+00 9.171E-05 1.169E-04 1.502E+00 5.845E+01  0.3481 0.88361 1.188E+00
  1.400E+02 2.218E+02 1.464E+00 3.491E-05 0.000E+00 9.984E-05 1.347E-04 1.465E+00 7.195E+01  0.4069 0.90278 1.148E+00
  1.700E+02 2.546E+02 1.431E+00 5.061E-05 0.000E+00 1.120E-04 1.626E-04 1.431E+00 9.269E+01  0.4900 0.92363 1.110E+00
  2.000E+02 2.868E+02 1.414E+00 6.749E-05 0.000E+00 1.242E-04 1.917E-04 1.414E+00 1.138E+02  0.5676 0.93835 1.086E+00
  2.500E+02 3.396E+02 1.403E+00 9.793E-05 0.000E+00 1.445E-04 2.425E-04 1.404E+00 1.493E+02  0.6871 0.95485 1.064E+00
  2.673E+02 3.577E+02 1.403E+00 1.309E-04 0.000E+00 1.649E-04 2.958E-04 1.404E+00 1.493E+02  0.6871 0.95485 1.064E+00
  3.000E+02 3.917E+02 1.404E+00 1.309E-04 0.000E+00 1.649E-04 2.958E-04 1.404E+00 1.849E+02  0.7963 0.96548 1.052E+00
  3.500E+02 4.432E+02 1.410E+00 1.661E-04 0.000E+00 1.852E-04 3.513E-04 1.411E+00 2.205E+02  0.8971 0.97274 1.046E+00
  4.000E+02 4.945E+02 1.419E+00 2.033E-04 0.000E+00 2.055E-04 4.088E-04 1.419E+00 2.558E+02  0.9909 0.97793 1.044E+00
  4.500E+02 5.455E+02 1.429E+00 2.423E-04 0.000E+00 2.258E-04 4.681E-04 1.429E+00 2.909E+02  1.0787 0.98176 1.043E+00
  5.000E+02 5.964E+02 1.439E+00 2.828E-04 0.000E+00 2.461E-04 5.290E-04 1.440E+00 3.258E+02  1.1613 0.98467 1.043E+00
  5.500E+02 6.471E+02 1.450E+00 3.249E-04 0.000E+00 2.665E-04 5.914E-04 1.450E+00 3.604E+02  1.2394 0.98693 1.044E+00
  6.000E+02 6.977E+02 1.460E+00 3.684E-04 0.000E+00 2.868E-04 6.551E-04 1.461E+00 3.947E+02  1.3135 0.98873 1.046E+00
  7.000E+02 7.987E+02 1.480E+00 4.590E-04 0.000E+00 3.274E-04 7.864E-04 1.481E+00 4.627E+02  1.4512 0.99136 1.049E+00
  8.000E+02 8.995E+02 1.499E+00 5.541E-04 0.000E+00 3.681E-04 9.222E-04 1.500E+00 5.298E+02  1.5773 0.99317 1.053E+00
  9.000E+02 1.000E+03 1.516E+00 6.532E-04 0.000E+00 4.087E-04 1.062E-03 1.517E+00 5.961E+02  1.6936 0.99447 1.057E+00
  1.000E+03 1.101E+03 1.532E+00 7.559E-04 4.496E-06 4.493E-04 1.210E-03 1.533E+00 6.617E+02  1.8018 0.99542 1.061E+00
